  p2290ho1.dta WELLF=  9.99 T0= 3.19 K1= 0.256 E= .
 Processed by tov  on 10/14/96 with METPROC {14-Oct-96}

********************************************************************************

                     METABOLIC INTERPRETATION INFORMATION

                               >>> SCAN 1 <<<

********************************************************************************

     Scan Type = Blood Flow (H2O)    
     Scan Began   15. seconds after administration
     Scan Time was    40. seconds
     Frame Length was   0.00 seconds
     There were 120 Points in the Blood Curve

          TIME (SECS)          ACTIVITY (counts/(sec*ml blood))
               1.0                          28.
               2.0                          46.
               3.0                         393.
               4.0                         141.
               5.0                           0.
               6.0                          72.
               7.0                          80.
               8.0                         121.
               9.0                         501.
              10.0                           0.
              11.0                           0.
              12.0                         633.
              13.0                         408.
              14.0                         658.
              15.0                        4344.
              16.0                       13132.
              17.0                       30539.
              18.0                       56986.
              19.0                       99124.
              20.0                      132093.
              21.0                      161425.
              22.0                      190535.
              23.0                      201964.
              24.0                      211520.
              25.0                      208024.
              26.0                      205576.
              27.0                      214754.
              28.0                      219421.
              29.0                      212178.
              30.0                      199254.
              31.0                      175576.
              32.0                      148238.
              33.0                      130215.
              34.0                      125297.
              35.0                      110815.
              36.0                       85872.
              37.0                       88043.
              38.0                       75853.
              39.0                       67171.
              40.0                       68288.
              41.0                       60820.
              42.0                       53973.
              43.0                       61284.
              44.0                       52981.
              45.0                       54851.
              46.0                       51420.
              47.0                       47087.
              48.0                       47352.
              49.0                       41035.
              50.0                       40878.
              51.0                       42372.
              52.0                       40118.
              53.0                       47463.
              54.0                       41258.
              55.0                       39304.
              56.0                       36064.
              57.0                       35237.
              58.0                       36005.
              59.0                       36952.
              60.0                       26478.
              61.0                       31152.
              62.0                       29537.
              63.0                       33043.
              64.0                       31385.
              65.0                       26746.
              66.0                       26117.
              67.0                       24810.
              68.0                       24753.
              69.0                       28767.
              70.0                       27084.
              71.0                       22917.
              72.0                       24017.
              73.0                       24619.
              74.0                       18728.
              75.0                       23880.
              76.0                       25081.
              77.0                       20422.
              78.0                       22548.
              79.0                       21366.
              80.0                       20864.
              81.0                       22353.
              82.0                       20019.
              83.0                       18787.
              84.0                       22362.
              85.0                       17749.
              86.0                       18935.
              87.0                       20108.
              88.0                       17865.
              89.0                       17978.
              90.0                       21516.
              91.0                       20568.
              92.0                       22627.
              93.0                       17051.
              94.0                       17350.
              95.0                       20422.
              96.0                       14645.
              97.0                       20568.
              98.0                       22386.
              99.0                       11546.
             100.0                           0.
             101.0                           0.
             102.0                           0.
             103.0                           0.
             104.0                           0.
             105.0                           0.
             106.0                           0.
             107.0                           0.
             108.0                           0.
             109.0                         104.
             110.0                         232.
             111.0                         308.
             112.0                         343.
             113.0                         349.
             114.0                         332.
             115.0                         303.
             116.0                         199.
             117.0                           0.
             118.0                           0.
             119.0                           0.
             120.0                           0.
 
     Bank Pairs Used    0.00
     Pie File used = /usr/local/npg/pie/930601_2Dsta_953B.pie
     Pie Slope =      5.4418
     PETT Conversion Factor =    326.5080
          PETT Counts/(pixel*min) to Well Counts/(ml*sec)
     Efficiency Factor included in PETT Conversion Factor =       1.0000000
     Constants used in Blood Flow Algorithm:
          Partition Coef =  0.950 (ml/ml)
          Decay Constant = 0.00566800 (1/sec)
     2nd Order Coefficient for Flow=          0.00000146
     1st Order Coefficient for Flow=          0.01974002
 
     Integrated Blood Curve (from injection) =       4141860.
                        (from start of scan) =       4136607.
         (Non-Decay-Corrected Counts)
