
********************************************************************************

                     METABOLIC INTERPRETATION INFORMATION

                               >>> SCAN 3 <<<

********************************************************************************

     Scan Type = Blood Flow (H2O)                     
     Scan Began   19. seconds after administration
     Scan Time was    40. seconds
     Frame Length was   0.00 seconds
     There were 120 Points in the Blood Curve

          TIME (SECS)          ACTIVITY (counts/(sec*ml blood))
               2.0                        1684.
               3.0                        1164.
               4.0                        1050.
               5.0                        1071.
               6.0                         962.
               7.0                         884.
               8.0                        1056.
               9.0                        1332.
              10.0                        1547.
              11.0                        1618.
              12.0                        1375.
              13.0                        1037.
              14.0                         882.
              15.0                         876.
              16.0                        1181.
              17.0                        1587.
              18.0                        1541.
              19.0                        1291.
              20.0                        1146.
              21.0                         933.
              22.0                         984.
              23.0                        1640.
              24.0                        2344.
              25.0                        2871.
              26.0                        4457.
              27.0                        9134.
              28.0                       18362.
              29.0                       32886.
              30.0                       54200.
              31.0                       82574.
              32.0                      113449.
              33.0                      143586.
              34.0                      176243.
              35.0                      210106.
              36.0                      236970.
              37.0                      255866.
              38.0                      269081.
              39.0                      272081.
              40.0                      264517.
              41.0                      252796.
              42.0                      240683.
              43.0                      229576.
              44.0                      217409.
              45.0                      200948.
              46.0                      181786.
              47.0                      164602.
              48.0                      153927.
              49.0                      147142.
              50.0                      135910.
              51.0                      122216.
              52.0                      113514.
              53.0                      107080.
              54.0                       99995.
              55.0                       94231.
              56.0                       89146.
              57.0                       85766.
              58.0                       85255.
              59.0                       83249.
              60.0                       77556.
              61.0                       72785.
              62.0                       70560.
              63.0                       67233.
              64.0                       63379.
              65.0                       62133.
              66.0                       62741.
              67.0                       62706.
              68.0                       60800.
              69.0                       58475.
              70.0                       57441.
              71.0                       56337.
              72.0                       54799.
              73.0                       54435.
              74.0                       54469.
              75.0                       53264.
              76.0                       51339.
              77.0                       50263.
              78.0                       50029.
              79.0                       48759.
              80.0                       46594.
              81.0                       46301.
              82.0                       47443.
              83.0                       47153.
              84.0                       46640.
              85.0                       47234.
              86.0                       46198.
              87.0                       43399.
              88.0                       42135.
              89.0                       42594.
              90.0                       42648.
              91.0                       42195.
              92.0                       41560.
              93.0                       40229.
              94.0                       39539.
              95.0                       40262.
              96.0                       40398.
              97.0                       38948.
              98.0                       36513.
              99.0                       35574.
             100.0                       37741.
             101.0                       38946.
             102.0                       37429.
             103.0                       36740.
             104.0                       36768.
             105.0                       36298.
             106.0                       36424.
             107.0                       36235.
             108.0                       35150.
             109.0                       33944.
             110.0                       33139.
             111.0                       33910.
             112.0                       35153.
             113.0                       34756.
             114.0                       33268.
             115.0                       31489.
             116.0                       27158.
             117.0                       16029.
             118.0                        1837.
             119.0                           0.
             120.0                           0.
             121.0                           0.
 
     Bank Pairs Used    0.00
     Pie File used = /usr/local/npg/pie/950825_2D_961.pie
     Pie Slope =      4.3621
     PETT Conversion Factor =    261.7260
          PETT Counts/(pixel*min) to Well Counts/(ml*sec)
     Efficiency Factor included in PETT Conversion Factor =       1.0000000
     Constants used in Blood Flow Algorithm:
          Partition Coef =  0.950 (ml/ml)
          Decay Constant = 0.00566800 (1/sec)
     2nd Order Coefficient for Flow=          0.00000089
     1st Order Coefficient for Flow=          0.01911455
 
     Integrated Blood Curve (from injection) =       4940013.
                        (from start of scan) =       4917681.
         (Non-Decay-Corrected Counts)
