  WELLF= 15.1800 T0= 3.77 K1= 0.349 E=.092 NSMO= 2 
 Processed by tov  on 12/ 2/2002 with METPROC {02-Dec-2002}

********************************************************************************

                     METABOLIC INTERPRETATION INFORMATION

                               >>> SCAN 1 <<<

********************************************************************************

     Scan Type = Blood Volume (CO)                    
     Scan Began   15. seconds after administration
     Scan Time was   300. seconds
     Frame Length was   0.00 seconds
     There were 320 Points in the Blood Curve

          TIME (SECS)          ACTIVITY (counts/(sec*ml blood))
               1.0                       56067.
               2.0                       53016.
               3.0                       51081.
               4.0                       49865.
               5.0                       49466.
               6.0                       50646.
               7.0                       51033.
               8.0                       49535.
               9.0                       48974.
              10.0                       49564.
              11.0                       49139.
              12.0                       48084.
              13.0                       48192.
              14.0                       48370.
              15.0                       47183.
              16.0                       46878.
              17.0                       47648.
              18.0                       47048.
              19.0                       45792.
              20.0                       45026.
              21.0                       44632.
              22.0                       45025.
              23.0                       45404.
              24.0                       44905.
              25.0                       45075.
              26.0                       45292.
              27.0                       43024.
              28.0                       41263.
              29.0                       42796.
              30.0                       43655.
              31.0                       42288.
              32.0                       42657.
              33.0                       44906.
              34.0                       44597.
              35.0                       42001.
              36.0                       40787.
              37.0                       40928.
              38.0                       41213.
              39.0                       41080.
              40.0                       40828.
              41.0                       41171.
              42.0                       40908.
              43.0                       40566.
              44.0                       40664.
              45.0                       41023.
              46.0                       44817.
              47.0                       46708.
              48.0                       39455.
              49.0                       33536.
              50.0                       36071.
              51.0                       38148.
              52.0                       36810.
              53.0                       36446.
              54.0                       37467.
              55.0                       38570.
              56.0                       37977.
              57.0                       35934.
              58.0                       35533.
              59.0                       35645.
              60.0                       34843.
              61.0                       35143.
              62.0                       35978.
              63.0                       36112.
              64.0                       35671.
              65.0                       34791.
              66.0                       34372.
              67.0                       34321.
              68.0                       34730.
              69.0                       35344.
              70.0                       33828.
              71.0                       31611.
              72.0                       32182.
              73.0                       33641.
              74.0                       33179.
              75.0                       32626.
              76.0                       33007.
              77.0                       32455.
              78.0                       31018.
              79.0                       30086.
              80.0                       30556.
              81.0                       31886.
              82.0                       32354.
              83.0                       32203.
              84.0                       31630.
              85.0                       30023.
              86.0                       29338.
              87.0                       30492.
              88.0                       30850.
              89.0                       29804.
              90.0                       29402.
              91.0                       29193.
              92.0                       28648.
              93.0                       29767.
              94.0                       31565.
              95.0                       30786.
              96.0                       27628.
              97.0                       25474.
              98.0                       26334.
              99.0                       27715.
             100.0                       27983.
             101.0                       28738.
             102.0                       28519.
             103.0                       26390.
             104.0                       25958.
             105.0                       27309.
             106.0                       26942.
             107.0                       25562.
             108.0                       26057.
             109.0                       27717.
             110.0                       28231.
             111.0                       27457.
             112.0                       26275.
             113.0                       25129.
             114.0                       24538.
             115.0                       24925.
             116.0                       25734.
             117.0                       25869.
             118.0                       25192.
             119.0                       24707.
             120.0                       24748.
             121.0                       24537.
             122.0                       23925.
             123.0                       23427.
             124.0                       23406.
             125.0                       23752.
             126.0                       23731.
             127.0                       23639.
             128.0                       24148.
             129.0                       23913.
             130.0                       22916.
             131.0                       23121.
             132.0                       23415.
             133.0                       22533.
             134.0                       22483.
             135.0                       23585.
             136.0                       23937.
             137.0                       22890.
             138.0                       21554.
             139.0                       21431.
             140.0                       22007.
             141.0                       21885.
             142.0                       21104.
             143.0                       20442.
             144.0                       20522.
             145.0                       21238.
             146.0                       21397.
             147.0                       20651.
             148.0                       20274.
             149.0                       20658.
             150.0                       21091.
             151.0                       20834.
             152.0                       20271.
             153.0                       20497.
             154.0                       20709.
             155.0                       20360.
             156.0                       20198.
             157.0                       20012.
             158.0                       20182.
             159.0                       20598.
             160.0                       20021.
             161.0                       19569.
             162.0                       19702.
             163.0                       19054.
             164.0                       18769.
             165.0                       18726.
             166.0                       17312.
             167.0                       16916.
             168.0                       18414.
             169.0                       19359.
             170.0                       19567.
             171.0                       19264.
             172.0                       18393.
             173.0                       17661.
             174.0                       17272.
             175.0                       17929.
             176.0                       19331.
             177.0                       19169.
             178.0                       17384.
             179.0                       16212.
             180.0                       16499.
             181.0                       17678.
             182.0                       18235.
             183.0                       17500.
             184.0                       16915.
             185.0                       16910.
             186.0                       17207.
             187.0                       17629.
             188.0                       16884.
             189.0                       15715.
             190.0                       16323.
             191.0                       17784.
             192.0                       18061.
             193.0                       17498.
             194.0                       17000.
             195.0                       16544.
             196.0                       16098.
             197.0                       15564.
             198.0                       14947.
             199.0                       14499.
             200.0                       14584.
             201.0                       15373.
             202.0                       15821.
             203.0                       15583.
             204.0                       15522.
             205.0                       15536.
             206.0                       15570.
             207.0                       15396.
             208.0                       14259.
             209.0                       13394.
             210.0                       14686.
             211.0                       16696.
             212.0                       17052.
             213.0                       15920.
             214.0                       13872.
             215.0                       12349.
             216.0                       12974.
             217.0                       14042.
             218.0                       13798.
             219.0                       12932.
             220.0                       12755.
             221.0                       13894.
             222.0                       14905.
             223.0                       14751.
             224.0                       14400.
             225.0                       13802.
             226.0                       12734.
             227.0                       12154.
             228.0                       12089.
             229.0                       12016.
             230.0                       12699.
             231.0                       14474.
             232.0                       15036.
             233.0                       13128.
             234.0                       11499.
             235.0                       11947.
             236.0                       12715.
             237.0                       12690.
             238.0                       12516.
             239.0                       12166.
             240.0                       11384.
             241.0                       10977.
             242.0                       11635.
             243.0                       12602.
             244.0                       12697.
             245.0                       11925.
             246.0                       11395.
             247.0                       11517.
             248.0                       11637.
             249.0                       11675.
             250.0                       11898.
             251.0                       11992.
             252.0                       11522.
             253.0                       10772.
             254.0                       10451.
             255.0                       10422.
             256.0                       10256.
             257.0                       10250.
             258.0                       10588.
             259.0                       10872.
             260.0                       10946.
             261.0                       10996.
             262.0                       10959.
             263.0                       10868.
             264.0                       11128.
             265.0                       11339.
             266.0                       10339.
             267.0                        9049.
             268.0                        9680.
             269.0                       11055.
             270.0                       10683.
             271.0                        9662.
             272.0                        9824.
             273.0                       10003.
             274.0                        9259.
             275.0                        9071.
             276.0                        9698.
             277.0                       10057.
             278.0                       10078.
             279.0                        9647.
             280.0                        9193.
             281.0                        9550.
             282.0                        9933.
             283.0                        9727.
             284.0                        9621.
             285.0                        9635.
             286.0                        9324.
             287.0                        9159.
             288.0                        9821.
             289.0                       10635.
             290.0                       10231.
             291.0                        8895.
             292.0                        7995.
             293.0                        8099.
             294.0                        8783.
             295.0                        9388.
             296.0                        9560.
             297.0                        9108.
             298.0                        8680.
             299.0                        8792.
             300.0                        8886.
             301.0                        9002.
             302.0                        9316.
             303.0                        9310.
             304.0                        8949.
             305.0                        8716.
             306.0                        8693.
             307.0                        8661.
             308.0                        8776.
             309.0                        9038.
             310.0                        8833.
             311.0                        8209.
             312.0                        7891.
             313.0                        7857.
             314.0                        7736.
             315.0                        7038.
             316.0                        4610.
             317.0                         991.
             318.0                           0.
             319.0                           0.
             320.0                           0.
 
     Bank Pairs Used    0.00
     Pie File used = /usr/local/npg/pie/950825_2D_961.pie
     Pie Slope =      4.3621
     PETT Conversion Factor =    261.7260
          PETT Counts/(pixel*min) to Well Counts/(ml*sec)
     Efficiency Factor included in PETT Conversion Factor  1.000
     Blood Volume Factor =          0.00447628
 
     Integrated Blood Curve (from injection) =       7277829.
                        (from start of scan) =       6551204.
         (Non-Decay-Corrected Counts)

********************************************************************************

                     METABOLIC INTERPRETATION INFORMATION

                               >>> SCAN 2 <<<

********************************************************************************

     Scan Type = Oxygen: Mintun Bolus                 
     Scan Began   17. seconds after administration
     Scan Time was    40. seconds
     Frame Length was   0.00 seconds
     Blood Oxygen Fraction = 0.104
     Blood Hematocrit =  25.0
     Recirculating Water Parameters:
          Peak Time =   36.0
          Frac Time =  145.0
          Fraction H2O=  0.621
     There were 121 Points in the Blood Curve

          TIME (SECS)          ACTIVITY (counts/(sec*ml blood))
               3.0                         828.
               4.0                        1783.
               5.0                        2749.
               6.0                        3129.
               7.0                        2634.
               8.0                        2229.
               9.0                        2972.
              10.0                        3636.
              11.0                        2746.
              12.0                        1645.
              13.0                        1705.
              14.0                        2221.
              15.0                        2370.
              16.0                        2075.
              17.0                        1701.
              18.0                        2041.
              19.0                        3320.
              20.0                        5267.
              21.0                        9038.
              22.0                       15409.
              23.0                       22785.
              24.0                       30901.
              25.0                       41053.
              26.0                       51160.
              27.0                       57802.
              28.0                       62366.
              29.0                       68064.
              30.0                       74606.
              31.0                       79818.
              32.0                       81783.
              33.0                       81843.
              34.0                       84685.
              35.0                       89986.
              36.0                       92078.
              37.0                       90550.
              38.0                       89393.
              39.0                       87896.
              40.0                       83185.
              41.0                       75510.
              42.0                       67184.
              43.0                       60382.
              44.0                       55179.
              45.0                       50955.
              46.0                       47121.
              47.0                       43260.
              48.0                       39840.
              49.0                       35636.
              50.0                       31095.
              51.0                       29903.
              52.0                       31121.
              53.0                       29863.
              54.0                       26018.
              55.0                       24069.
              56.0                       24521.
              57.0                       24110.
              58.0                       23017.
              59.0                       22460.
              60.0                       21609.
              61.0                       20414.
              62.0                       19196.
              63.0                       18504.
              64.0                       18995.
              65.0                       19083.
              66.0                       17794.
              67.0                       17167.
              68.0                       18128.
              69.0                       18631.
              70.0                       17363.
              71.0                       15968.
              72.0                       15682.
              73.0                       15754.
              74.0                       15803.
              75.0                       15789.
              76.0                       15591.
              77.0                       15354.
              78.0                       14906.
              79.0                       14208.
              80.0                       14192.
              81.0                       15089.
              82.0                       15349.
              83.0                       14493.
              84.0                       13789.
              85.0                       13678.
              86.0                       13594.
              87.0                       13704.
              88.0                       14906.
              89.0                       16245.
              90.0                       15236.
              91.0                       12436.
              92.0                       10885.
              93.0                       11031.
              94.0                       11721.
              95.0                       12692.
              96.0                       13198.
              97.0                       12947.
              98.0                       12412.
              99.0                       11200.
             100.0                       10013.
             101.0                       10524.
             102.0                       11632.
             103.0                       11415.
             104.0                       10840.
             105.0                       10896.
             106.0                       10650.
             107.0                       10228.
             108.0                       10348.
             109.0                       10407.
             110.0                       10218.
             111.0                        9900.
             112.0                        9206.
             113.0                        8885.
             114.0                        9314.
             115.0                        9701.
             116.0                        9763.
             117.0                        8582.
             118.0                        4800.
             119.0                         331.
             120.0                           0.
             121.0                           0.
             122.0                           0.
             145.0                        7187.
 
     Bank Pairs Used    0.00
     Pie File used = /usr/local/npg/pie/950825_2D_961.pie
     Pie Slope =      4.3621
     PETT Conversion Factor =    261.7260
          PETT Counts/(pixel*min) to Well Counts/(ml*sec)
     Efficiency Factor included in PETT Conversion Factor  1.000
     2nd Order Coefficient for Water=         -0.01641894
     1st Order Coefficient for Water=         18.73866463
     2nd Order Coefficient for Oxygen=        -11.59075451
     1st Order Coefficient for Oxygen=       6471.50927734
 
     Integrated Blood Curve (from injection) =       2023994.
                        (from start of scan) =       1989592.
         (Non-Decay-Corrected Counts)

********************************************************************************

                     METABOLIC INTERPRETATION INFORMATION

                               >>> SCAN 3 <<<

********************************************************************************

     Scan Type = Blood Flow (H2O)                     
     Scan Began   19. seconds after administration
     Scan Time was    40. seconds
     Frame Length was   0.00 seconds
     There were 120 Points in the Blood Curve

          TIME (SECS)          ACTIVITY (counts/(sec*ml blood))
               2.0                        1684.
               3.0                        1164.
               4.0                        1050.
               5.0                        1071.
               6.0                         962.
               7.0                         884.
               8.0                        1056.
               9.0                        1332.
              10.0                        1547.
              11.0                        1618.
              12.0                        1375.
              13.0                        1037.
              14.0                         882.
              15.0                         876.
              16.0                        1181.
              17.0                        1587.
              18.0                        1541.
              19.0                        1291.
              20.0                        1146.
              21.0                         933.
              22.0                         984.
              23.0                        1640.
              24.0                        2344.
              25.0                        2871.
              26.0                        4457.
              27.0                        9134.
              28.0                       18362.
              29.0                       32886.
              30.0                       54200.
              31.0                       82574.
              32.0                      113449.
              33.0                      143586.
              34.0                      176243.
              35.0                      210106.
              36.0                      236970.
              37.0                      255866.
              38.0                      269081.
              39.0                      272081.
              40.0                      264517.
              41.0                      252796.
              42.0                      240683.
              43.0                      229576.
              44.0                      217409.
              45.0                      200948.
              46.0                      181786.
              47.0                      164602.
              48.0                      153927.
              49.0                      147142.
              50.0                      135910.
              51.0                      122216.
              52.0                      113514.
              53.0                      107080.
              54.0                       99995.
              55.0                       94231.
              56.0                       89146.
              57.0                       85766.
              58.0                       85255.
              59.0                       83249.
              60.0                       77556.
              61.0                       72785.
              62.0                       70560.
              63.0                       67233.
              64.0                       63379.
              65.0                       62133.
              66.0                       62741.
              67.0                       62706.
              68.0                       60800.
              69.0                       58475.
              70.0                       57441.
              71.0                       56337.
              72.0                       54799.
              73.0                       54435.
              74.0                       54469.
              75.0                       53264.
              76.0                       51339.
              77.0                       50263.
              78.0                       50029.
              79.0                       48759.
              80.0                       46594.
              81.0                       46301.
              82.0                       47443.
              83.0                       47153.
              84.0                       46640.
              85.0                       47234.
              86.0                       46198.
              87.0                       43399.
              88.0                       42135.
              89.0                       42594.
              90.0                       42648.
              91.0                       42195.
              92.0                       41560.
              93.0                       40229.
              94.0                       39539.
              95.0                       40262.
              96.0                       40398.
              97.0                       38948.
              98.0                       36513.
              99.0                       35574.
             100.0                       37741.
             101.0                       38946.
             102.0                       37429.
             103.0                       36740.
             104.0                       36768.
             105.0                       36298.
             106.0                       36424.
             107.0                       36235.
             108.0                       35150.
             109.0                       33944.
             110.0                       33139.
             111.0                       33910.
             112.0                       35153.
             113.0                       34756.
             114.0                       33268.
             115.0                       31489.
             116.0                       27158.
             117.0                       16029.
             118.0                        1837.
             119.0                           0.
             120.0                           0.
             121.0                           0.
 
     Bank Pairs Used    0.00
     Pie File used = /usr/local/npg/pie/950825_2D_961.pie
     Pie Slope =      4.3621
     PETT Conversion Factor =    261.7260
          PETT Counts/(pixel*min) to Well Counts/(ml*sec)
     Efficiency Factor included in PETT Conversion Factor  1.000
     Constants used in Blood Flow Algorithm:
          Partition Coef =  0.950 (ml/ml)
          Decay Constant = 0.00566800 (1/sec)
     2nd Order Coefficient for Flow=          0.00000089
     1st Order Coefficient for Flow=          0.01911455
 
     Integrated Blood Curve (from injection) =       4940013.
                        (from start of scan) =       4917681.
         (Non-Decay-Corrected Counts)
