  WELLF= 11.27 T0= 3.22 K1= 0.262 E=.066 NSMO= 2  p
 Processed by tov  on 11/ 9/95 with METPROC {15-Oct-93}

********************************************************************************

                     METABOLIC INTERPRETATION INFORMATION

                               >>> SCAN 1 <<<

********************************************************************************

     Scan Type = Blood Flow (H2O)    
     Scan Began   14. seconds after administration
     Scan Time was    40. seconds
     Frame Length was   0.00 seconds
     There were 105 Points in the Blood Curve

          TIME (SECS)          ACTIVITY (counts/(sec*ml blood))
               1.0                         116.
               2.0                         232.
               3.0                         339.
               4.0                         332.
               5.0                         334.
               6.0                         349.
               7.0                         233.
               8.0                         226.
               9.0                         613.
              10.0                        1559.
              11.0                        3798.
              12.0                        8305.
              13.0                       15863.
              14.0                       28070.
              15.0                       47669.
              16.0                       75931.
              17.0                      110588.
              18.0                      146000.
              19.0                      175814.
              20.0                      201737.
              21.0                      229844.
              22.0                      254600.
              23.0                      271132.
              24.0                      286507.
              25.0                      300704.
              26.0                      310269.
              27.0                      317968.
              28.0                      320568.
              29.0                      314794.
              30.0                      306586.
              31.0                      298994.
              32.0                      285108.
              33.0                      261610.
              34.0                      236950.
              35.0                      216808.
              36.0                      197512.
              37.0                      176931.
              38.0                      156853.
              39.0                      137947.
              40.0                      123481.
              41.0                      116762.
              42.0                      112410.
              43.0                      106235.
              44.0                       99766.
              45.0                       92335.
              46.0                       84697.
              47.0                       78860.
              48.0                       73559.
              49.0                       67718.
              50.0                       62954.
              51.0                       61132.
              52.0                       59673.
              53.0                       55685.
              54.0                       52290.
              55.0                       50676.
              56.0                       48381.
              57.0                       45809.
              58.0                       43526.
              59.0                       42654.
              60.0                       44082.
              61.0                       43173.
              62.0                       38770.
              63.0                       37453.
              64.0                       39844.
              65.0                       40863.
              66.0                       39860.
              67.0                       38233.
              68.0                       36838.
              69.0                       36540.
              70.0                       37641.
              71.0                       39950.
              72.0                       41161.
              73.0                       39553.
              74.0                       37198.
              75.0                       36188.
              76.0                       36100.
              77.0                       35477.
              78.0                       35007.
              79.0                       36383.
              80.0                       37490.
              81.0                       35807.
              82.0                       33523.
              83.0                       33310.
              84.0                       33962.
              85.0                       33875.
              86.0                       33152.
              87.0                       31736.
              88.0                       30249.
              89.0                       29828.
              90.0                       30837.
              91.0                       32400.
              92.0                       32212.
              93.0                       30441.
              94.0                       30112.
              95.0                       31513.
              96.0                       31686.
              97.0                       29290.
              98.0                       27231.
              99.0                       27962.
             100.0                       26441.
             101.0                       14751.
             102.0                           0.
             103.0                           0.
             104.0                           0.
             105.0                           0.

     Bank Pairs Used    0.00
     Pie File used = /data/raw/953b/pie/930601sta.pie
     Pie Slope =     10.8836
     PETT Conversion Factor =    653.0160
          PETT Counts/(pixel*min) to Well Counts/(ml*sec)
     Efficiency Factor included in PETT Conversion Factor =       1.0000000
     Constants used in Blood Flow Algorithm:
          Partition Coef =  0.950 (ml/ml)
          Decay Constant = 0.00566800 (1/sec)
     2nd Order Coefficient for Flow=          0.00000214
     1st Order Coefficient for Flow=          0.02435262

     Integrated Blood Curve (from injection) =       6921207.
                        (from start of scan) =       6874872.
         (Non-Decay-Corrected Counts)

********************************************************************************

                     METABOLIC INTERPRETATION INFORMATION

                               >>> SCAN 2 <<<

********************************************************************************

     Scan Type = Blood Volume (CO)   
     Scan Began   15. seconds after administration
     Scan Time was   300. seconds
     Frame Length was   0.00 seconds
     There were 320 Points in the Blood Curve

          TIME (SECS)          ACTIVITY (counts/(sec*ml blood))
               1.0                      178233.
               2.0                      169488.
               3.0                      164342.
               4.0                      164517.
               5.0                      165896.
               6.0                      163470.
               7.0                      160812.
               8.0                      161958.
               9.0                      163185.
              10.0                      162749.
              11.0                      162321.
              12.0                      160957.
              13.0                      157886.
              14.0                      154229.
              15.0                      151427.
              16.0                      150289.
              17.0                      150807.
              18.0                      152191.
              19.0                      151572.
              20.0                      147806.
              21.0                      145292.
              22.0                      146695.
              23.0                      149028.
              24.0                      148467.
              25.0                      144828.
              26.0                      142917.
              27.0                      144461.
              28.0                      144855.
              29.0                      143728.
              30.0                      142694.
              31.0                      138578.
              32.0                      134123.
              33.0                      134993.
              34.0                      137713.
              35.0                      137978.
              36.0                      136916.
              37.0                      136010.
              38.0                      133969.
              39.0                      131051.
              40.0                      130979.
              41.0                      132150.
              42.0                      129980.
              43.0                      127358.
              44.0                      128448.
              45.0                      130180.
              46.0                      128657.
              47.0                      126081.
              48.0                      125433.
              49.0                      124368.
              50.0                      121363.
              51.0                      120276.
              52.0                      122305.
              53.0                      123830.
              54.0                      123607.
              55.0                      121938.
              56.0                      118129.
              57.0                      113561.
              58.0                      111300.
              59.0                      113375.
              60.0                      116872.
              61.0                      116532.
              62.0                      114432.
              63.0                      114167.
              64.0                      112874.
              65.0                      110648.
              66.0                      110726.
              67.0                      111456.
              68.0                      111275.
              69.0                      110465.
              70.0                      108859.
              71.0                      107967.
              72.0                      108260.
              73.0                      108491.
              74.0                      108277.
              75.0                      107699.
              76.0                      106100.
              77.0                      102959.
              78.0                      101940.
              79.0                      104909.
              80.0                      106143.
              81.0                      102785.
              82.0                       98795.
              83.0                       97182.
              84.0                       96916.
              85.0                       96576.
              86.0                       96965.
              87.0                       98210.
              88.0                       98156.
              89.0                       96964.
              90.0                       97712.
              91.0                       99092.
              92.0                       97998.
              93.0                       95926.
              94.0                       93777.
              95.0                       91533.
              96.0                       91520.
              97.0                       93244.
              98.0                       93029.
              99.0                       90630.
             100.0                       88511.
             101.0                       87478.
             102.0                       88343.
             103.0                       90293.
             104.0                       89536.
             105.0                       86151.
             106.0                       83453.
             107.0                       83070.
             108.0                       84646.
             109.0                       85517.
             110.0                       85341.
             111.0                       86283.
             112.0                       86931.
             113.0                       85347.
             114.0                       83635.
             115.0                       84103.
             116.0                       84063.
             117.0                       81193.
             118.0                       79123.
             119.0                       80268.
             120.0                       81320.
             121.0                       79349.
             122.0                       76833.
             123.0                       76465.
             124.0                       76719.
             125.0                       76648.
             126.0                       76253.
             127.0                       75690.
             128.0                       77199.
             129.0                       79129.
             130.0                       77203.
             131.0                       73854.
             132.0                       73176.
             133.0                       73703.
             134.0                       73467.
             135.0                       73401.
             136.0                       73495.
             137.0                       72661.
             138.0                       71748.
             139.0                       71612.
             140.0                       70757.
             141.0                       68769.
             142.0                       68173.
             143.0                       69210.
             144.0                       69424.
             145.0                       68306.
             146.0                       67034.
             147.0                       66947.
             148.0                       67977.
             149.0                       68213.
             150.0                       66627.
             151.0                       64866.
             152.0                       65543.
             153.0                       67608.
             154.0                       68063.
             155.0                       67272.
             156.0                       65893.
             157.0                       63089.
             158.0                       60549.
             159.0                       60625.
             160.0                       61158.
             161.0                       59906.
             162.0                       59804.
             163.0                       62368.
             164.0                       64076.
             165.0                       62898.
             166.0                       60915.
             167.0                       59810.
             168.0                       58768.
             169.0                       57881.
             170.0                       58278.
             171.0                       58997.
             172.0                       58581.
             173.0                       57357.
             174.0                       57021.
             175.0                       57511.
             176.0                       56595.
             177.0                       54997.
             178.0                       54647.
             179.0                       54795.
             180.0                       54565.
             181.0                       54532.
             182.0                       55851.
             183.0                       57436.
             184.0                       55979.
             185.0                       52651.
             186.0                       52208.
             187.0                       54133.
             188.0                       54651.
             189.0                       53433.
             190.0                       52271.
             191.0                       51802.
             192.0                       51705.
             193.0                       51380.
             194.0                       50184.
             195.0                       49380.
             196.0                       49948.
             197.0                       50841.
             198.0                       51481.
             199.0                       50669.
             200.0                       48618.
             201.0                       47834.
             202.0                       48155.
             203.0                       48507.
             204.0                       48956.
             205.0                       48368.
             206.0                       47112.
             207.0                       47264.
             208.0                       47518.
             209.0                       46346.
             210.0                       45318.
             211.0                       45220.
             212.0                       45657.
             213.0                       45534.
             214.0                       44424.
             215.0                       44209.
             216.0                       44963.
             217.0                       44910.
             218.0                       44679.
             219.0                       45354.
             220.0                       45131.
             221.0                       42828.
             222.0                       41441.
             223.0                       43092.
             224.0                       44942.
             225.0                       44390.
             226.0                       42584.
             227.0                       41389.
             228.0                       41493.
             229.0                       41890.
             230.0                       41066.
             231.0                       39912.
             232.0                       40328.
             233.0                       41740.
             234.0                       41971.
             235.0                       39949.
             236.0                       37026.
             237.0                       36423.
             238.0                       38457.
             239.0                       40156.
             240.0                       40796.
             241.0                       40688.
             242.0                       39617.
             243.0                       38544.
             244.0                       37699.
             245.0                       36628.
             246.0                       36249.
             247.0                       37030.
             248.0                       37800.
             249.0                       38057.
             250.0                       38270.
             251.0                       38281.
             252.0                       37551.
             253.0                       36335.
             254.0                       35136.
             255.0                       34088.
             256.0                       34122.
             257.0                       35775.
             258.0                       36550.
             259.0                       34376.
             260.0                       32665.
             261.0                       34187.
             262.0                       35386.
             263.0                       33733.
             264.0                       31532.
             265.0                       30986.
             266.0                       31474.
             267.0                       31596.
             268.0                       31372.
             269.0                       31516.
             270.0                       32396.
             271.0                       33193.
             272.0                       33371.
             273.0                       33413.
             274.0                       32717.
             275.0                       31416.
             276.0                       30977.
             277.0                       31196.
             278.0                       31209.
             279.0                       31186.
             280.0                       30606.
             281.0                       29521.
             282.0                       29757.
             283.0                       30868.
             284.0                       30901.
             285.0                       30043.
             286.0                       28907.
             287.0                       27980.
             288.0                       28536.
             289.0                       30237.
             290.0                       30395.
             291.0                       28210.
             292.0                       26645.
             293.0                       27566.
             294.0                       29014.
             295.0                       29245.
             296.0                       28586.
             297.0                       27579.
             298.0                       26960.
             299.0                       27307.
             300.0                       27693.
             301.0                       27049.
             302.0                       26118.
             303.0                       26026.
             304.0                       26247.
             305.0                       25898.
             306.0                       25700.
             307.0                       26296.
             308.0                       26549.
             309.0                       26333.
             310.0                       26622.
             311.0                       26370.
             312.0                       25334.
             313.0                       24949.
             314.0                       24558.
             315.0                       21162.
             316.0                       10931.
             317.0                           0.
             318.0                           0.
             319.0                           0.
             320.0                           0.

     Bank Pairs Used    0.00
     Pie File used = /data/raw/953b/pie/930601sta.pie
     Pie Slope =     10.8836
     PETT Conversion Factor =    653.0160
          PETT Counts/(pixel*min) to Well Counts/(ml*sec)
     Efficiency Factor included in PETT Conversion Factor =       1.0000000
     Blood Volume Factor =          0.00348263

     Integrated Blood Curve (from injection) =      23374890.
                        (from start of scan) =      21009126.
         (Non-Decay-Corrected Counts)

********************************************************************************

                     METABOLIC INTERPRETATION INFORMATION

                               >>> SCAN 3 <<<

********************************************************************************

     Scan Type = Oxygen              
     Scan Began   14. seconds after administration
     Scan Time was    40. seconds
     Frame Length was   0.00 seconds
     Blood Oxygen Fraction = 0.190
     Blood Hematocrit =  41.0
     Recirculating Water Parameters:
          Peak Time =   15.0
          Frac Time =  120.0
          Fraction H2O=  0.382
     There were 106 Points in the Blood Curve

          TIME (SECS)          ACTIVITY (counts/(sec*ml blood))
               1.0                         773.
               2.0                         876.
               3.0                         872.
               4.0                        1190.
               5.0                        2419.
               6.0                        5449.
               7.0                       11302.
               8.0                       20840.
               9.0                       35088.
              10.0                       53327.
              11.0                       72492.
              12.0                       92084.
              13.0                      111582.
              14.0                      124319.
              15.0                      126820.
              16.0                      122967.
              17.0                      115371.
              18.0                      108240.
              19.0                      105845.
              20.0                      104732.
              21.0                      102101.
              22.0                      100726.
              23.0                      101701.
              24.0                      100798.
              25.0                       96092.
              26.0                       93405.
              27.0                       93334.
              28.0                       90638.
              29.0                       87118.
              30.0                       84876.
              31.0                       81414.
              32.0                       76614.
              33.0                       72056.
              34.0                       67759.
              35.0                       64207.
              36.0                       62784.
              37.0                       62510.
              38.0                       61013.
              39.0                       58120.
              40.0                       55552.
              41.0                       55080.
              42.0                       56392.
              43.0                       56944.
              44.0                       55766.
              45.0                       53728.
              46.0                       51915.
              47.0                       51541.
              48.0                       51990.
              49.0                       51985.
              50.0                       51701.
              51.0                       51076.
              52.0                       49383.
              53.0                       46806.
              54.0                       44670.
              55.0                       43803.
              56.0                       43259.
              57.0                       42172.
              58.0                       41258.
              59.0                       40595.
              60.0                       39398.
              61.0                       38229.
              62.0                       37402.
              63.0                       35183.
              64.0                       32628.
              65.0                       33094.
              66.0                       34224.
              67.0                       32551.
              68.0                       30456.
              69.0                       29965.
              70.0                       29642.
              71.0                       29140.
              72.0                       28874.
              73.0                       27846.
              74.0                       26057.
              75.0                       25154.
              76.0                       25409.
              77.0                       25078.
              78.0                       24033.
              79.0                       24474.
              80.0                       25792.
              81.0                       25120.
              82.0                       23114.
              83.0                       22082.
              84.0                       22188.
              85.0                       22725.
              86.0                       22737.
              87.0                       21637.
              88.0                       20171.
              89.0                       19619.
              90.0                       20611.
              91.0                       22119.
              92.0                       22531.
              93.0                       21384.
              94.0                       19517.
              95.0                       19163.
              96.0                       21007.
              97.0                       21956.
              98.0                       20410.
              99.0                       18740.
             100.0                       16341.
             101.0                        8510.
             102.0                           0.
             103.0                           0.
             104.0                           0.
             105.0                           0.
             120.0                       14161.

     Bank Pairs Used    0.00
     Pie File used = /data/raw/953b/pie/930601sta.pie
     Pie Slope =     10.8836
     PETT Conversion Factor =    653.0160
          PETT Counts/(pixel*min) to Well Counts/(ml*sec)
     Efficiency Factor included in PETT Conversion Factor =       1.0000000
     2nd Order Coefficient for Water=         -0.20474908
     1st Order Coefficient for Water=        136.14038086
     2nd Order Coefficient for Oxygen=        -32.12167740
     1st Order Coefficient for Oxygen=      14167.78906250

     Integrated Blood Curve (from injection) =       3536050.
                        (from start of scan) =       3065596.
         (Non-Decay-Corrected Counts)
